29.04.2025   Spezifische Waerme 
 Zeit [s] - Temperatur [K] - Heizspannung [V] 
   0,000 	 78,866269 	 0,017113 
   0,607 	 78,869549 	 0,017332 
   1,108 	 78,883009 	 0,017335 
   1,608 	 78,877142 	 0,017339 
   2,107 	 78,870076 	 0,017332 
   2,607 	 78,882079 	 0,017338 
   3,108 	 78,874830 	 0,017333 
   3,607 	 78,877112 	 0,017338 
   4,107 	 78,877443 	 0,017357 
   4,608 	 78,873097 	 0,017347 
   5,108 	 78,869937 	 0,017345 
   5,607 	 78,871753 	 0,017347 
   6,107 	 78,879927 	 0,017345 
   6,607 	 78,878461 	 0,017355 
   7,107 	 78,880601 	 0,017365 
   7,608 	 78,879895 	 0,017338 
   8,107 	 78,874070 	 0,017335 
   8,608 	 78,879412 	 0,017345 
   9,107 	 78,880705 	 0,017343 
   9,607 	 78,881409 	 0,017342 
  10,107 	 78,877629 	 0,017335 
  10,607 	 78,882090 	 0,017338 
  11,107 	 78,882885 	 0,017345 
  11,607 	 78,886454 	 0,017323 
  12,107 	 78,887685 	 0,017329 
  12,608 	 78,883117 	 0,017332 
  13,108 	 78,878885 	 0,017335 
  13,607 	 78,873515 	 0,017341 
  14,108 	 78,881105 	 0,017332 
  14,607 	 78,909629 	 2,821244 
  15,107 	 78,949541 	 4,587792 
  15,608 	 79,033243 	 4,588172 
  16,108 	 79,148268 	 4,588370 
  16,609 	 79,264853 	 4,588550 
  17,108 	 79,386360 	 4,588721 
  17,609 	 79,501622 	 4,588868 
  18,109 	 79,615455 	 4,588995 
  18,609 	 79,727847 	 4,589114 
  19,109 	 79,845700 	 4,589265 
  19,609 	 79,954688 	 4,589385 
  20,109 	 80,064379 	 4,589485 
  20,609 	 80,183333 	 4,589627 
  21,109 	 80,292826 	 4,589727 
  21,608 	 80,411286 	 4,589855 
  22,109 	 80,519038 	 4,589967 
  22,608 	 80,635002 	 4,590077 
  23,108 	 80,739411 	 4,590194 
  23,609 	 80,852265 	 4,590277 
  24,108 	 80,960514 	 4,590395 
  24,608 	 81,072827 	 4,590506 
  25,109 	 81,183016 	 4,590625 
  25,609 	 81,292465 	 4,590725 
  26,108 	 81,402251 	 4,590836 
  26,610 	 81,515309 	 4,590952 
  27,109 	 81,622056 	 4,591074 
  27,609 	 81,735065 	 4,591164 
  28,108 	 81,841940 	 4,591261 
  28,608 	 81,950312 	 4,591375 
  29,109 	 82,065033 	 4,591475 
  29,608 	 82,170965 	 4,591560 
  30,108 	 82,278895 	 4,591681 
  30,609 	 82,386734 	 4,591778 
  31,108 	 82,498178 	 4,591896 
  31,608 	 82,601045 	 4,591988 
  32,108 	 82,711385 	 4,592069 
  32,608 	 82,821395 	 4,592195 
  33,108 	 82,928260 	 4,592274 
  33,610 	 83,038257 	 4,592391 
  34,109 	 83,148255 	 4,592487 
  34,610 	 83,251868 	 4,592586 
  35,109 	 83,361469 	 4,592694 
  35,610 	 83,471894 	 4,592788 
  36,109 	 83,580958 	 4,592894 
  36,609 	 83,686095 	 4,592998 
  37,109 	 83,797443 	 4,593097 
  37,609 	 83,904372 	 4,593179 
  38,110 	 84,015421 	 4,593287 
  38,608 	 84,114760 	 4,593386 
  39,110 	 84,224819 	 4,593494 
  39,608 	 84,337188 	 4,593599 
  40,108 	 84,438873 	 4,593679 
  40,609 	 84,552103 	 4,593775 
  41,109 	 84,647796 	 4,593863 
  41,609 	 84,764247 	 4,593969 
  42,108 	 84,868584 	 4,594063 
  42,609 	 84,977252 	 4,594149 
  43,108 	 85,075838 	 4,594236 
  43,608 	 85,192765 	 4,594330 
  44,108 	 85,293257 	 4,594452 
  44,608 	 85,403378 	 4,594549 
  45,108 	 85,501999 	 4,594656 
  45,609 	 85,609596 	 4,594735 
  46,108 	 85,715119 	 4,594848 
  46,608 	 85,818813 	 4,594948 
  47,109 	 85,926618 	 4,595035 
  47,608 	 86,029936 	 4,595150 
  48,108 	 86,136109 	 4,595225 
  48,608 	 86,242103 	 4,595308 
  49,109 	 86,348790 	 4,595410 
  49,609 	 86,454541 	 4,595498 
  50,108 	 86,562286 	 4,595609 
  50,608 	 86,666264 	 4,595689 
  51,110 	 86,765257 	 4,595807 
  51,609 	 86,875687 	 4,595908 
  52,109 	 86,981764 	 4,595988 
  52,610 	 87,085538 	 4,596078 
  53,109 	 87,192079 	 4,596173 
  53,610 	 87,295649 	 4,596261 
  54,110 	 87,396887 	 4,596353 
  54,609 	 87,505896 	 4,596446 
  55,109 	 87,603139 	 4,596532 
  55,609 	 87,712741 	 4,596627 
  56,109 	 87,816952 	 4,596746 
  56,609 	 87,920316 	 4,596797 
  57,110 	 88,025440 	 4,596885 
  57,609 	 88,126008 	 4,596971 
  58,109 	 88,233172 	 4,597077 
  58,610 	 88,335424 	 4,597147 
  59,110 	 88,437254 	 4,597233 
  59,609 	 88,546518 	 4,597337 
  60,110 	 88,645387 	 4,597412 
  60,610 	 88,746474 	 4,597521 
  61,109 	 88,844377 	 4,597623 
  61,610 	 88,956758 	 4,597694 
  62,110 	 89,054920 	 4,597773 
  62,610 	 89,167736 	 4,597888 
  63,109 	 89,262315 	 4,597959 
  63,610 	 89,368804 	 4,598063 
  64,109 	 89,473131 	 4,598156 
  64,609 	 89,576595 	 4,598238 
  65,110 	 89,682601 	 4,598313 
  65,609 	 89,781936 	 4,598382 
  66,109 	 89,885200 	 4,598482 
  66,610 	 89,986584 	 4,598563 
  67,109 	 90,090949 	 4,598649 
  67,610 	 90,195469 	 4,598739 
  68,110 	 90,289218 	 4,598816 
  68,611 	 90,396640 	 4,598929 
  69,110 	 90,500711 	 4,599010 
  69,611 	 90,604431 	 4,599100 
  70,110 	 90,704349 	 4,599168 
  70,610 	 90,802410 	 4,599263 
  71,110 	 90,906232 	 4,599340 
  71,610 	 91,008225 	 4,599412 
  72,110 	 91,107081 	 4,599504 
  72,611 	 91,213676 	 4,599588 
  73,110 	 91,314725 	 4,599694 
  73,611 	 91,415341 	 4,599782 
  74,111 	 91,519610 	 4,599847 
  74,611 	 91,627146 	 4,599926 
  75,111 	 91,706053 	 4,599988 
  75,611 	 91,825656 	 4,600073 
  76,111 	 91,924684 	 4,600164 
  76,611 	 92,025224 	 4,600258 
  77,110 	 92,125007 	 4,600355 
  77,610 	 92,224654 	 4,600423 
  78,111 	 92,327842 	 4,600523 
  78,610 	 92,422466 	 4,600600 
  79,111 	 92,530516 	 4,600642 
  79,611 	 92,627403 	 4,600761 
  80,110 	 92,731762 	 4,600834 
  80,610 	 92,828759 	 4,600902 
  81,110 	 92,923830 	 4,600993 
  81,610 	 93,027084 	 4,601067 
  82,111 	 93,130409 	 4,601147 
  82,610 	 93,227520 	 4,601242 
  83,110 	 93,329681 	 4,601329 
  83,610 	 93,429373 	 4,601399 
  84,111 	 93,527916 	 4,601476 
  84,610 	 93,625975 	 4,601561 
  85,111 	 93,731190 	 4,601620 
  85,610 	 93,825736 	 4,601731 
  86,111 	 93,929224 	 4,601812 
  86,611 	 94,030764 	 4,601885 
  87,112 	 94,131132 	 4,601966 
  87,611 	 94,226116 	 4,602027 
  88,111 	 94,324073 	 4,602107 
  88,612 	 94,422076 	 4,602178 
  89,112 	 94,522311 	 4,602269 
  89,611 	 94,618752 	 4,602342 
  90,112 	 94,718254 	 4,602413 
  90,611 	 94,816382 	 4,602487 
  91,112 	 94,915441 	 4,602604 
  91,611 	 95,012280 	 4,602648 
  92,112 	 95,113835 	 4,602734 
  92,611 	 95,211474 	 4,602816 
  93,112 	 95,301196 	 4,602889 
  93,611 	 95,407891 	 4,602958 
  94,111 	 95,514232 	 4,603040 
  94,611 	 95,606705 	 4,603125 
  95,112 	 95,705629 	 4,603210 
  95,612 	 95,809174 	 4,603297 
  96,111 	 95,903706 	 4,603344 
  96,611 	 96,001170 	 4,603424 
  97,112 	 96,100170 	 4,603495 
  97,612 	 96,193185 	 4,603569 
  98,112 	 96,285669 	 4,603640 
  98,612 	 96,398199 	 4,603712 
  99,111 	 96,485461 	 4,603774 
  99,612 	 96,593858 	 4,603867 
 100,111 	 96,689777 	 4,603951 
 100,612 	 96,789737 	 4,604014 
 101,112 	 96,886483 	 4,604094 
 101,612 	 96,971226 	 4,604169 
 102,112 	 97,072388 	 4,604222 
 102,612 	 97,181357 	 4,604303 
 103,112 	 97,260661 	 4,604390 
 103,613 	 97,367839 	 4,604484 
 104,113 	 97,458521 	 4,604544 
 104,613 	 97,558941 	 4,604616 
 105,112 	 97,653640 	 4,604682 
 105,613 	 97,751199 	 4,604754 
 106,113 	 97,846904 	 4,604841 
 106,613 	 97,940758 	 4,604910 
 107,112 	 98,037665 	 4,604968 
 107,612 	 98,141311 	 4,605044 
 108,112 	 98,231482 	 4,605124 
 108,613 	 98,346294 	 4,605211 
 109,113 	 98,421254 	 4,605256 
 109,612 	 98,524839 	 4,605340 
 110,113 	 98,624575 	 4,605418 
 110,613 	 98,718447 	 4,605460 
 111,113 	 98,814623 	 4,605559 
 111,612 	 98,908226 	 4,605655 
 112,111 	 99,009664 	 4,605715 
 112,612 	 99,100052 	 4,605793 
 113,112 	 99,194673 	 4,605837 
 113,612 	 99,283806 	 4,605912 
 114,112 	 99,391314 	 4,605984 
 114,612 	 99,481802 	 4,606057 
 115,111 	 99,582730 	 4,606135 
 115,611 	 99,685132 	 4,606211 
 116,112 	 99,768743 	 4,606280 
 116,612 	 99,868681 	 4,606326 
 117,111 	 99,965842 	 4,606416 
 117,612 	 100,058885 	 4,606493 
 118,112 	 100,152580 	 4,606566 
 118,612 	 100,252389 	 4,606630 
 119,111 	 100,351527 	 4,606700 
 119,611 	 100,449777 	 4,606763 
 120,112 	 100,543745 	 4,606828 
 120,613 	 100,633025 	 4,606902 
 121,112 	 100,735958 	 4,606966 
 121,612 	 100,819975 	 4,607035 
 122,113 	 100,906178 	 4,607111 
 122,613 	 101,014829 	 4,607167 
 123,113 	 101,102735 	 4,607240 
 123,613 	 101,198439 	 4,607297 
 124,112 	 101,298855 	 4,607376 
 124,613 	 101,393359 	 4,607425 
 125,112 	 101,485383 	 4,607512 
 125,613 	 101,574845 	 4,607566 
 126,112 	 101,669058 	 4,607616 
 126,613 	 101,770758 	 4,607707 
 127,113 	 101,862401 	 4,607763 
 127,613 	 101,954331 	 4,607827 
 128,112 	 102,044962 	 4,607909 
 128,613 	 102,140917 	 4,607970 
 129,113 	 102,234107 	 4,608047 
 129,612 	 102,324171 	 4,608113 
 130,112 	 102,424544 	 4,608176 
 130,612 	 102,515773 	 4,608242 
 131,112 	 102,608424 	 4,608321 
 131,612 	 102,702276 	 4,608389 
 132,112 	 102,792598 	 4,608456 
 132,612 	 102,888372 	 4,608514 
 133,112 	 102,979821 	 4,608570 
 133,612 	 103,082812 	 4,608620 
 134,113 	 103,171156 	 4,608706 
 134,612 	 103,269078 	 4,608763 
 135,112 	 103,360092 	 4,608836 
 135,612 	 103,453755 	 4,608899 
 136,112 	 103,544700 	 4,608933 
 136,612 	 103,637178 	 4,608977 
 137,113 	 103,730125 	 4,609070 
 137,613 	 103,827276 	 4,609160 
 138,113 	 103,918840 	 4,609209 
 138,613 	 104,008031 	 4,609260 
 139,113 	 104,108532 	 4,609348 
 139,613 	 104,198826 	 4,609367 
 140,114 	 104,294940 	 4,609441 
 140,613 	 104,380687 	 4,609510 
 141,114 	 104,473180 	 4,609602 
 141,613 	 104,569094 	 4,609694 
 142,113 	 104,657760 	 4,609695 
 142,613 	 104,751949 	 4,609799 
 143,113 	 104,853438 	 4,609848 
 143,613 	 104,938909 	 4,609898 
 144,113 	 105,033868 	 4,609958 
 144,613 	 105,134216 	 4,610016 
 145,114 	 105,211820 	 4,610088 
 145,613 	 105,308388 	 4,610138 
 146,114 	 105,403877 	 4,610195 
 146,614 	 105,493233 	 4,610285 
 147,113 	 105,582936 	 4,610335 
 147,614 	 105,680636 	 4,610397 
 148,113 	 105,768578 	 4,610459 
 148,614 	 105,861958 	 4,610511 
 149,113 	 105,953646 	 4,610552 
 149,614 	 106,047074 	 4,610635 
 150,113 	 106,137808 	 4,610682 
 150,613 	 106,234700 	 4,610759 
 151,113 	 106,321490 	 4,610832 
 151,613 	 106,415633 	 4,610894 
 152,113 	 106,511609 	 4,610912 
 152,614 	 106,601070 	 4,610987 
 153,113 	 106,693211 	 4,611052 
 153,614 	 106,779692 	 4,611126 
 154,114 	 106,872248 	 4,611195 
 154,614 	 106,970282 	 4,611244 
 155,113 	 107,058796 	 4,611309 
 155,615 	 107,148741 	 4,611401 
 156,115 	 107,237606 	 4,611447 
 156,615 	 107,330073 	 4,611485 
 157,115 	 107,422106 	 4,611534 
 157,615 	 107,518061 	 4,611612 
 158,115 	 107,610903 	 4,611662 
 158,615 	 107,699075 	 4,611708 
 159,115 	 107,792688 	 4,611770 
 159,615 	 107,879131 	 4,611821 
 160,115 	 107,970325 	 4,611882 
 160,615 	 108,061992 	 4,611939 
 161,114 	 108,148838 	 4,611983 
 161,615 	 108,242934 	 4,612029 
 162,115 	 108,336639 	 4,612041 
 162,615 	 108,421596 	 4,612103 
 163,115 	 108,514990 	 4,612222 
 163,614 	 108,605746 	 4,612204 
 164,115 	 108,699128 	 4,612341 
 164,614 	 108,792803 	 4,612363 
 165,114 	 108,877639 	 4,612479 
 165,614 	 108,968713 	 4,612524 
 166,115 	 109,058382 	 4,612610 
 166,614 	 109,150430 	 4,612615 
 167,115 	 109,239024 	 4,612686 
 167,615 	 109,332617 	 4,612748 
 168,114 	 109,420830 	 4,612813 
 168,614 	 109,511052 	 4,612861 
 169,115 	 109,599442 	 4,612916 
 169,615 	 109,689912 	 4,612979 
 170,115 	 109,779642 	 4,613034 
 170,614 	 109,873343 	 4,613090 
 171,115 	 109,960244 	 4,613141 
 171,614 	 110,052609 	 4,613191 
 172,115 	 110,139329 	 4,613250 
 172,614 	 110,224584 	 4,613299 
 173,116 	 110,317972 	 4,613334 
 173,616 	 110,405870 	 4,613413 
 174,116 	 110,491625 	 4,613445 
 174,615 	 110,584484 	 4,613515 
 175,116 	 110,670131 	 4,613562 
 175,616 	 110,761459 	 4,613612 
 176,116 	 110,854511 	 4,613674 
 176,616 	 110,946080 	 4,613728 
 177,116 	 111,028629 	 4,613794 
 177,616 	 111,129405 	 4,613855 
 178,116 	 111,216994 	 4,613896 
 178,615 	 111,304856 	 4,613954 
 179,115 	 111,394710 	 4,613994 
 179,615 	 111,482914 	 4,614064 
 180,116 	 111,572850 	 4,614100 
 180,615 	 111,661682 	 4,614173 
 181,115 	 111,751261 	 4,614213 
 181,614 	 111,835582 	 4,614263 
 182,116 	 111,928703 	 4,614320 
 182,615 	 112,018172 	 4,614386 
 183,114 	 112,109823 	 4,614425 
 183,615 	 112,196017 	 4,614490 
 184,115 	 112,289214 	 4,614540 
 184,615 	 112,376531 	 4,614588 
 185,114 	 112,460811 	 4,614614 
 185,614 	 112,550638 	 4,614690 
 186,115 	 112,642422 	 4,614752 
 186,614 	 112,730092 	 4,614807 
 187,114 	 112,819700 	 4,614863 
 187,615 	 112,909287 	 4,614908 
 188,115 	 113,001028 	 4,614974 
 188,614 	 113,082204 	 4,615060 
 189,115 	 113,176410 	 4,615108 
 189,615 	 113,264284 	 4,615171 
 190,114 	 113,347331 	 4,615196 
 190,616 	 113,442242 	 4,615253 
 191,116 	 113,525292 	 4,615284 
 191,615 	 113,613524 	 4,615320 
 192,116 	 113,703941 	 4,615372 
 192,615 	 113,792094 	 4,615441 
 193,116 	 113,881530 	 4,615491 
 193,615 	 113,973753 	 4,615499 
 194,116 	 114,054930 	 4,615551 
 194,615 	 114,145343 	 4,615669 
 195,116 	 114,234058 	 4,615680 
 195,615 	 114,318020 	 4,615747 
 196,115 	 114,410260 	 4,615807 
 196,615 	 114,500931 	 4,615849 
 197,116 	 114,585614 	 4,615919 
 197,615 	 114,671339 	 4,615937 
 198,115 	 114,760282 	 4,615990 
 198,615 	 114,853156 	 4,616050 
 199,115 	 114,937152 	 4,616102 
 199,615 	 115,024010 	 4,616161 
 200,116 	 115,112491 	 4,616200 
 200,616 	 115,202660 	 4,616251 
 201,116 	 115,288229 	 4,616286 
 201,616 	 115,376931 	 4,616346 
 202,115 	 115,461585 	 4,616386 
 202,616 	 115,551277 	 4,616447 
 203,115 	 115,638752 	 4,616488 
 203,616 	 115,726752 	 4,616524 
 204,115 	 115,813750 	 4,616593 
 204,615 	 115,901360 	 4,616645 
 205,115 	 115,989564 	 4,616706 
 205,616 	 116,078384 	 4,616722 
 206,116 	 116,162526 	 4,616788 
 206,616 	 116,248430 	 4,616831 
 207,116 	 116,335826 	 4,616873 
 207,616 	 116,424655 	 4,616926 
 208,116 	 116,509051 	 4,616974 
 208,616 	 116,597080 	 4,617004 
 209,117 	 116,684083 	 4,617068 
 209,617 	 116,772733 	 4,617137 
 210,116 	 116,862922 	 4,617176 
 210,617 	 116,944469 	 4,617215 
 211,116 	 117,032637 	 4,617276 
 211,617 	 117,117125 	 4,617329 
 212,116 	 117,205632 	 4,617389 
 212,617 	 117,293017 	 4,617433 
 213,116 	 117,379170 	 4,617470 
 213,617 	 117,470436 	 4,617527 
 214,117 	 117,554019 	 4,617571 
 214,616 	 117,641494 	 4,617652 
 215,117 	 117,731217 	 4,617682 
 215,616 	 117,818849 	 4,617716 
 216,116 	 117,902378 	 4,617740 
 216,616 	 117,994468 	 4,617792 
 217,116 	 118,076185 	 4,617829 
 217,616 	 118,161987 	 4,617879 
 218,117 	 118,245822 	 4,617939 
 218,616 	 118,340256 	 4,617981 
 219,117 	 118,418181 	 4,618030 
 219,617 	 118,498904 	 4,618077 
 220,117 	 118,587658 	 4,618117 
 220,616 	 118,673764 	 4,618147 
 221,116 	 118,760822 	 4,618206 
 221,616 	 118,842508 	 4,618230 
 222,116 	 118,927734 	 4,618286 
 222,616 	 119,015738 	 4,618319 
 223,116 	 119,097710 	 4,618379 
 223,616 	 119,190055 	 4,618451 
 224,117 	 119,270279 	 4,618487 
 224,616 	 119,360098 	 4,618520 
 225,117 	 119,447291 	 4,618578 
 225,617 	 119,529185 	 4,618628 
 226,117 	 119,615885 	 4,618652 
 226,617 	 119,703618 	 4,618689 
 227,117 	 119,786743 	 4,618754 
 227,617 	 119,874022 	 4,618801 
 228,117 	 119,954993 	 4,618834 
 228,618 	 120,043312 	 4,618864 
 229,118 	 120,125247 	 4,618912 
 229,618 	 120,216148 	 4,618955 
 230,118 	 120,300596 	 4,619009 
 230,617 	 120,379322 	 4,619072 
 231,117 	 120,468762 	 4,619101 
 231,617 	 120,557812 	 4,619141 
 232,117 	 120,642243 	 4,619204 
 232,617 	 120,729760 	 4,619243 
 233,118 	 120,816500 	 4,619275 
 233,617 	 120,898474 	 4,619322 
 234,118 	 120,983716 	 4,619350 
 234,617 	 121,070288 	 4,619401 
 235,117 	 121,152037 	 4,619451 
 235,617 	 121,236873 	 4,619487 
 236,117 	 121,323672 	 4,619524 
 236,618 	 121,402671 	 4,619583 
 237,117 	 121,493006 	 4,619620 
 237,618 	 121,579987 	 4,619657 
 238,118 	 121,663357 	 4,619697 
 238,618 	 121,746835 	 4,619768 
 239,118 	 121,834049 	 4,619787 
 239,618 	 121,921653 	 4,619838 
 240,118 	 122,002444 	 4,619868 
 240,618 	 122,090088 	 4,619905 
 241,117 	 122,170898 	 4,619956 
 241,618 	 122,259642 	 4,620011 
 242,118 	 122,335261 	 4,620032 
 242,618 	 122,429478 	 4,620053 
 243,119 	 122,503939 	 4,620117 
 243,618 	 122,591973 	 4,620157 
 244,119 	 122,682489 	 4,620204 
 244,618 	 122,763501 	 4,620264 
 245,119 	 122,847604 	 4,620294 
 245,618 	 122,928821 	 4,620341 
 246,119 	 123,015881 	 4,620380 
 246,619 	 123,095321 	 4,620400 
 247,118 	 123,186851 	 4,620441 
 247,619 	 123,270385 	 4,620492 
 248,119 	 123,359038 	 4,620550 
 248,619 	 123,439208 	 4,620586 
 249,118 	 123,517225 	 4,620600 
 249,619 	 123,602752 	 4,620647 
 250,119 	 123,684653 	 4,620697 
 250,619 	 123,765551 	 4,620744 
 251,118 	 123,854932 	 4,620779 
 251,618 	 123,938293 	 4,620831 
 252,118 	 124,020808 	 4,620866 
 252,619 	 124,107090 	 4,620900 
 253,119 	 124,190839 	 4,620971 
 253,618 	 124,271129 	 4,620990 
 254,118 	 124,359769 	 4,621034 
 254,618 	 124,440287 	 4,621056 
 255,118 	 124,517553 	 4,621098 
 255,617 	 124,602368 	 4,621132 
 256,118 	 124,689100 	 4,621164 
 256,618 	 124,773325 	 4,621200 
 257,117 	 124,856300 	 4,621248 
 257,618 	 124,943564 	 4,621272 
 258,117 	 125,022278 	 4,621315 
 258,617 	 125,103344 	 4,621360 
 259,117 	 125,191408 	 4,621397 
 259,617 	 125,269804 	 4,621443 
 260,117 	 125,355673 	 4,621474 
 260,619 	 125,437464 	 4,621521 
 261,118 	 125,523238 	 4,621552 
 261,619 	 125,602229 	 4,621575 
 262,119 	 125,685538 	 4,621655 
 262,619 	 125,778835 	 4,621688 
 263,119 	 125,849264 	 4,621728 
 263,619 	 125,934992 	 4,621757 
 264,119 	 126,023122 	 4,621801 
 264,619 	 126,100197 	 4,621838 
 265,119 	 126,182193 	 4,621863 
 265,619 	 126,261396 	 4,621892 
 266,119 	 126,343617 	 4,621931 
 266,619 	 126,431653 	 4,621992 
 267,119 	 126,508158 	 4,622013 
 267,619 	 126,588315 	 4,622069 
 268,119 	 126,674216 	 4,622086 
 268,619 	 126,752887 	 4,622129 
 269,119 	 126,839370 	 4,622148 
 269,618 	 126,920377 	 4,622207 
 270,119 	 127,004764 	 4,622222 
 270,618 	 127,089776 	 4,622278 
 271,118 	 127,174503 	 4,622298 
 271,618 	 127,248414 	 4,622319 
 272,119 	 127,333936 	 4,622355 
 272,619 	 127,412746 	 4,622399 
 273,119 	 127,494508 	 4,622429 
 273,618 	 127,573554 	 4,622474 
 274,119 	 127,656245 	 4,622501 
 274,619 	 127,737606 	 4,622528 
 275,119 	 127,820830 	 4,622565 
 275,619 	 127,904178 	 4,622612 
 276,119 	 127,988805 	 4,622664 
 276,619 	 128,062407 	 4,622706 
 277,119 	 128,142077 	 4,622731 
 277,618 	 128,231299 	 4,622762 
 278,120 	 128,312510 	 4,622802 
 278,619 	 128,386962 	 4,622837 
 279,119 	 128,470167 	 4,622875 
 279,619 	 128,556138 	 4,622911 
 280,120 	 128,637620 	 4,622937 
 280,619 	 128,720309 	 4,622989 
 281,119 	 128,798022 	 4,623018 
 281,619 	 128,876795 	 4,623025 
 282,120 	 128,958094 	 4,623047 
 282,620 	 129,039284 	 4,623076 
 283,119 	 129,119550 	 4,623128 
 283,619 	 129,199044 	 4,623165 
 284,119 	 129,286021 	 4,623202 
 284,620 	 129,362342 	 4,623239 
 285,119 	 129,444817 	 4,623260 
 285,619 	 129,521641 	 4,623315 
 286,119 	 129,601082 	 4,623350 
 286,619 	 129,680502 	 4,623383 
 287,120 	 129,760309 	 4,623393 
 287,619 	 129,846065 	 4,623436 
 288,119 	 129,923379 	 4,623476 
 288,619 	 130,001824 	 4,623509 
 289,120 	 130,085940 	 4,623541 
 289,619 	 130,168410 	 4,623567 
 290,119 	 130,243528 	 4,623604 
 290,620 	 130,325380 	 4,623644 
 291,119 	 130,406735 	 4,623682 
 291,620 	 130,485455 	 4,623724 
 292,120 	 130,563957 	 4,623769 
 292,620 	 130,644582 	 4,623813 
 293,119 	 130,727774 	 4,623847 
 293,620 	 130,808745 	 4,623867 
 294,120 	 130,878843 	 4,623925 
 294,620 	 130,962309 	 4,623937 
 295,120 	 131,039905 	 4,623964 
 295,620 	 131,130615 	 4,624013 
 296,121 	 131,204744 	 4,624051 
 296,620 	 131,281553 	 4,624091 
 297,121 	 131,360522 	 4,624142 
 297,620 	 131,439551 	 4,624179 
 298,121 	 131,519923 	 4,624195 
 298,621 	 131,598289 	 4,624225 
 299,121 	 131,679925 	 4,624271 
 299,621 	 131,756969 	 4,624295 
 300,121 	 131,837506 	 4,624326 
 300,621 	 131,914371 	 4,624356 
 301,120 	 131,999064 	 4,624378 
 301,621 	 132,077450 	 4,624400 
 302,120 	 132,162441 	 4,624429 
 302,621 	 132,238135 	 4,624469 
 303,120 	 132,314384 	 4,624510 
 303,621 	 132,398887 	 4,624566 
 304,121 	 132,481438 	 4,624573 
 304,620 	 132,549106 	 4,624608 
 305,121 	 132,636117 	 4,624637 
 305,620 	 132,718157 	 4,624671 
 306,120 	 132,798984 	 4,624700 
 306,620 	 132,886440 	 4,624734 
 307,120 	 132,965483 	 4,624770 
 307,620 	 133,052721 	 4,624811 
 308,120 	 133,133826 	 4,624875 
 308,620 	 133,215851 	 4,624888 
 309,120 	 133,301753 	 4,624943 
 309,620 	 133,386955 	 4,624976 
 310,120 	 133,472434 	 4,625004 
 310,621 	 133,551456 	 4,625034 
 311,121 	 133,643740 	 4,625099 
 311,620 	 133,733259 	 4,625141 
 312,120 	 133,825274 	 4,625170 
 312,620 	 133,907988 	 4,625210 
 313,122 	 133,998867 	 4,625251 
 313,621 	 134,097018 	 4,625290 
 314,121 	 134,181735 	 4,625317 
 314,621 	 134,277962 	 4,625351 
 315,122 	 134,374348 	 4,625394 
 315,621 	 134,469995 	 4,625456 
 316,122 	 134,568929 	 4,625477 
 316,621 	 134,666449 	 4,625544 
 317,121 	 134,771576 	 4,625564 
 317,622 	 134,870973 	 4,625597 
 318,122 	 134,970508 	 4,625644 
 318,621 	 135,074800 	 4,625696 
 319,121 	 135,176044 	 4,625738 
 319,622 	 135,281472 	 4,625802 
 320,122 	 135,380598 	 4,625804 
 320,621 	 135,492452 	 4,625887 
 321,122 	 135,603144 	 4,625928 
 321,621 	 135,707684 	 4,625966 
 322,121 	 135,815500 	 4,626008 
 322,622 	 135,926475 	 4,626063 
 323,122 	 136,034748 	 4,626110 
 323,622 	 136,144633 	 4,626160 
 324,122 	 136,259858 	 4,626210 
 324,622 	 136,377312 	 4,626242 
 325,120 	 136,480487 	 4,626295 
 325,622 	 136,592639 	 4,626325 
 326,120 	 136,704103 	 4,626378 
 326,620 	 136,819596 	 4,626423 
 327,121 	 136,937412 	 4,626487 
 327,620 	 137,051882 	 4,626534 
 328,120 	 137,168727 	 4,626578 
 328,620 	 137,279174 	 4,626635 
 329,121 	 137,398908 	 4,626686 
 329,621 	 137,508653 	 4,626721 
 330,120 	 137,630382 	 4,626770 
 330,621 	 137,742985 	 4,626810 
 331,122 	 137,851047 	 4,626864 
 331,621 	 137,976902 	 4,626906 
 332,121 	 138,095219 	 4,626946 
 332,621 	 138,207509 	 4,627001 
 333,121 	 138,325558 	 4,627044 
 333,622 	 138,442810 	 4,627097 
 334,121 	 138,558381 	 4,627160 
 334,622 	 138,673284 	 4,627187 
 335,121 	 138,792847 	 4,627246 
 335,621 	 138,908484 	 4,627304 
 336,121 	 139,024093 	 4,627336 
 336,621 	 139,134269 	 4,627389 
 337,121 	 139,264497 	 4,627431 
 337,621 	 139,378193 	 4,627479 
 338,121 	 139,496066 	 4,627524 
 338,622 	 139,618914 	 4,627573 
 339,122 	 139,730644 	 4,627627 
 339,622 	 139,854141 	 4,627693 
 340,122 	 139,966574 	 4,627724 
 340,621 	 140,084273 	 4,627784 
 341,121 	 140,199246 	 4,627829 
 341,621 	 140,326507 	 4,627858 
 342,122 	 140,432841 	 4,627905 
 342,622 	 140,554636 	 4,627958 
 343,122 	 140,673829 	 4,627995 
 343,622 	 140,794679 	 4,628051 
 344,122 	 140,910510 	 4,628095 
 344,622 	 141,029262 	 4,628149 
 345,122 	 141,147688 	 4,628191 
 345,621 	 141,269170 	 4,628237 
 346,122 	 141,386531 	 4,628267 
 346,622 	 141,501930 	 4,628317 
 347,121 	 141,618526 	 4,628351 
 347,621 	 141,738358 	 4,628414 
 348,122 	 141,853125 	 4,628466 
 348,622 	 141,973206 	 4,628493 
 349,122 	 142,093351 	 4,628532 
 349,622 	 142,209474 	 4,628570 
 350,122 	 142,330880 	 4,628630 
 350,623 	 142,445336 	 4,628676 
 351,122 	 142,565424 	 4,628714 
 351,623 	 142,688211 	 4,628751 
 352,123 	 142,801168 	 4,628803 
 352,623 	 142,916665 	 4,628863 
 353,123 	 143,036242 	 4,628896 
 353,623 	 143,146243 	 4,628915 
 354,123 	 143,259452 	 4,628979 
 354,623 	 143,381615 	 4,629032 
 355,122 	 143,495317 	 4,629070 
 355,623 	 143,614923 	 4,629118 
 356,122 	 143,734085 	 4,629154 
 356,622 	 143,852619 	 4,629195 
 357,122 	 143,967733 	 4,629243 
 357,622 	 144,089721 	 4,629278 
 358,123 	 144,203217 	 4,629327 
 358,622 	 144,321651 	 4,629362 
 359,123 	 144,444119 	 4,629403 
 359,623 	 144,560084 	 4,629450 
 360,123 	 144,681761 	 4,629498 
 360,622 	 144,797815 	 4,629540 
 361,122 	 144,913220 	 4,629600 
 361,622 	 145,036895 	 4,629635 
 362,122 	 145,151940 	 4,629677 
 362,622 	 145,269161 	 4,629734 
 363,122 	 145,389144 	 4,629769 
 363,622 	 145,506350 	 4,629809 
 364,122 	 145,623722 	 4,629845 
 364,623 	 145,738093 	 4,629891 
 365,123 	 145,863248 	 4,629946 
 365,623 	 145,977838 	 4,629977 
 366,123 	 146,092917 	 4,630010 
 366,623 	 146,213557 	 4,630058 
 367,124 	 146,331082 	 4,630097 
 367,624 	 146,448837 	 4,630138 
 368,123 	 146,562149 	 4,630184 
 368,623 	 146,680067 	 4,630231 
 369,123 	 146,797734 	 4,630266 
 369,623 	 146,913684 	 4,630320 
 370,123 	 147,034904 	 4,630377 
 370,623 	 147,152545 	 4,630434 
 371,123 	 147,273758 	 4,630446 
 371,623 	 147,390157 	 4,630494 
 372,124 	 147,499026 	 4,630551 
 372,624 	 147,619407 	 4,630573 
 373,124 	 147,733073 	 4,630598 
 373,623 	 147,846009 	 4,630650 
 374,124 	 147,966501 	 4,630704 
 374,624 	 148,083651 	 4,630740 
 375,123 	 148,207059 	 4,630789 
 375,624 	 148,318560 	 4,630853 
 376,124 	 148,435928 	 4,630880 
 376,624 	 148,557830 	 4,630914 
 377,124 	 148,671321 	 4,630957 
 377,624 	 148,793899 	 4,630995 
 378,123 	 148,904975 	 4,631041 
 378,624 	 149,024134 	 4,631081 
 379,123 	 149,137592 	 4,631132 
 379,624 	 149,256022 	 4,631157 
 380,124 	 149,379220 	 4,631185 
 380,624 	 149,482826 	 4,631240 
 381,123 	 149,605501 	 4,631276 
 381,624 	 149,719210 	 4,631321 
 382,123 	 149,834765 	 4,631366 
 382,624 	 149,958585 	 4,631399 
 383,125 	 150,085839 	 4,631445 
 383,625 	 150,196273 	 4,631473 
 384,124 	 150,303836 	 4,631533 
 384,625 	 150,427210 	 4,631554 
 385,125 	 150,534409 	 4,631588 
 385,624 	 150,645192 	 4,631631 
 386,125 	 150,773229 	 4,631683 
 386,625 	 150,881070 	 4,631707 
 387,125 	 150,993861 	 4,631743 
 387,624 	 151,114475 	 4,631794 
 388,124 	 151,231895 	 4,631838 
 388,625 	 151,344767 	 4,631877 
 389,124 	 151,466785 	 4,631907 
 389,625 	 151,583807 	 4,631937 
 390,124 	 151,693098 	 4,631984 
 390,625 	 151,816063 	 4,632024 
 391,125 	 151,923238 	 4,632063 
 391,624 	 152,041994 	 4,632099 
 392,124 	 152,159837 	 4,632160 
 392,624 	 152,277947 	 4,632186 
 393,124 	 152,390755 	 4,632203 
 393,624 	 152,508944 	 4,632240 
 394,124 	 152,623144 	 4,632259 
 394,624 	 152,737211 	 4,632324 
 395,125 	 152,856104 	 4,632371 
 395,624 	 152,974361 	 4,632390 
 396,124 	 153,088106 	 4,632424 
 396,624 	 153,211002 	 4,632463 
 397,124 	 153,318733 	 4,632500 
 397,623 	 153,434497 	 4,632548 
 398,123 	 153,548081 	 4,632574 
 398,623 	 153,670126 	 4,632622 
 399,124 	 153,790391 	 4,632653 
 399,624 	 153,905087 	 4,632691 
 400,124 	 154,021327 	 4,632730 
 400,624 	 154,138136 	 4,632766 
 401,124 	 154,250095 	 4,632783 
 401,625 	 154,368550 	 4,632822 
 402,124 	 154,484500 	 4,632867 
 402,625 	 154,595656 	 4,632901 
 403,125 	 154,711460 	 4,632937 
 403,625 	 154,829227 	 4,632985 
 404,125 	 154,942202 	 4,633008 
 404,625 	 155,063838 	 4,633039 
 405,124 	 155,172087 	 4,633063 
 405,625 	 155,291448 	 4,633111 
 406,125 	 155,403017 	 4,633143 
 406,625 	 155,512321 	 4,633183 
 407,124 	 155,631156 	 4,633221 
 407,625 	 155,744819 	 4,633252 
 408,124 	 155,860764 	 4,633286 
 408,625 	 155,972575 	 4,633334 
 409,125 	 156,085425 	 4,633335 
 409,624 	 156,202490 	 4,633394 
 410,124 	 156,322919 	 4,633416 
 410,624 	 156,441711 	 4,633453 
 411,124 	 156,556301 	 4,633494 
 411,625 	 156,663885 	 4,633528 
 412,124 	 156,785248 	 4,633553 
 412,624 	 156,897522 	 4,633602 
 413,124 	 157,006114 	 4,633616 
 413,624 	 157,120755 	 4,633668 
 414,125 	 157,236692 	 4,633703 
 414,624 	 157,351199 	 4,633731 
 415,124 	 157,473646 	 4,633753 
 415,624 	 157,586896 	 4,633783 
 416,124 	 157,695996 	 4,633848 
 416,624 	 157,822725 	 4,633893 
 417,124 	 157,940936 	 4,633900 
 417,624 	 158,049047 	 4,633935 
 418,125 	 158,162078 	 4,633976 
 418,625 	 158,273298 	 4,633998 
 419,126 	 158,394762 	 4,634026 
 419,625 	 158,497318 	 4,634083 
 420,125 	 158,616497 	 4,634115 
 420,625 	 158,727470 	 4,634161 
 421,125 	 158,842880 	 4,634171 
 421,625 	 158,956323 	 4,634203 
 422,125 	 159,074663 	 4,634230 
 422,625 	 159,196114 	 4,634255 
 423,126 	 159,305671 	 4,634282 
 423,625 	 159,406522 	 4,634326 
 424,126 	 159,518250 	 4,634385 
 424,625 	 159,636763 	 4,634391 
 425,125 	 159,745721 	 4,634424 
 425,625 	 159,865942 	 4,634468 
 426,126 	 159,971067 	 4,634513 
 426,626 	 160,089488 	 4,634526 
 427,125 	 160,197358 	 4,634551 
 427,625 	 160,318404 	 4,634572 
 428,126 	 160,432390 	 4,634621 
 428,626 	 160,546063 	 4,634643 
 429,126 	 160,666740 	 4,634675 
 429,626 	 160,762767 	 4,634724 
 430,125 	 160,913333 	 4,634739 
 430,626 	 160,996008 	 4,634794 
 431,125 	 161,105342 	 4,634817 
 431,626 	 161,210902 	 4,634850 
 432,126 	 161,327738 	 4,634879 
 432,626 	 161,459955 	 4,634915 
 433,126 	 161,554650 	 4,634944 
 433,626 	 161,671814 	 4,634973 
 434,126 	 161,781758 	 4,635018 
 434,626 	 161,901728 	 4,635039 
 435,126 	 162,010182 	 4,635079 
 435,627 	 162,129843 	 4,635102 
 436,127 	 162,224524 	 4,635118 
 436,627 	 162,339767 	 4,635153 
 437,127 	 162,466090 	 4,635190 
 437,627 	 162,574243 	 4,635224 
 438,127 	 162,688058 	 4,635261 
 438,627 	 162,796944 	 4,635272 
 439,126 	 162,899645 	 4,635319 
 439,626 	 163,016664 	 4,635340 
 440,127 	 163,125158 	 4,635372 
 440,627 	 163,235360 	 4,635398 
 441,127 	 163,365391 	 4,635426 
 441,627 	 163,467588 	 4,635463 
 442,126 	 163,576108 	 4,635502 
 442,627 	 163,685251 	 4,635522 
 443,126 	 163,798342 	 4,635549 
 443,627 	 163,916190 	 4,635567 
 444,127 	 164,023449 	 4,635598 
 444,626 	 164,138451 	 4,635641 
 445,127 	 164,247354 	 4,635678 
 445,626 	 164,375186 	 4,635706 
 446,126 	 164,468917 	 4,635732 
 446,626 	 164,577148 	 4,635761 
 447,126 	 164,692816 	 4,635801 
 447,626 	 164,800564 	 4,635815 
 448,127 	 164,915244 	 4,635838 
 448,626 	 165,044221 	 4,635868 
 449,126 	 165,135252 	 4,635921 
 449,626 	 165,258146 	 4,635943 
 450,127 	 165,364731 	 4,635961 
 450,626 	 165,477556 	 4,635982 
 451,126 	 165,595013 	 4,636029 
 451,626 	 165,690014 	 4,636062 
 452,126 	 165,820478 	 4,636097 
 452,626 	 165,933345 	 4,636116 
 453,128 	 166,032732 	 4,636159 
 453,627 	 166,139175 	 4,636193 
 454,127 	 166,249932 	 4,636205 
 454,627 	 166,372770 	 4,636218 
 455,127 	 166,463487 	 4,636248 
 455,627 	 166,581982 	 4,636287 
 456,127 	 166,712039 	 4,636326 
 456,627 	 166,825047 	 4,636337 
 457,127 	 166,917219 	 4,636356 
 457,627 	 167,043501 	 4,636384 
 458,127 	 167,131292 	 4,636417 
 458,627 	 167,252480 	 4,636435 
 459,127 	 167,361111 	 4,636464 
 459,627 	 167,466935 	 4,636488 
 460,127 	 167,582872 	 4,636512 
 460,628 	 167,691979 	 4,636548 
 461,127 	 167,803131 	 4,636577 
 461,628 	 167,913579 	 4,636615 
 462,127 	 168,021439 	 4,636638 
 462,627 	 168,123744 	 4,636661 
 463,128 	 168,241525 	 4,636698 
 463,628 	 168,348131 	 4,636726 
 464,127 	 168,466145 	 4,636745 
 464,627 	 168,572128 	 4,636790 
 465,127 	 168,694399 	 4,636798 
 465,628 	 168,792581 	 4,636836 
 466,128 	 168,901410 	 4,636850 
 466,628 	 169,022047 	 4,636866 
 467,128 	 169,130039 	 4,636917 
 467,628 	 169,225214 	 4,636920 
 468,127 	 169,341979 	 4,636954 
 468,628 	 169,440502 	 4,636970 
 469,128 	 169,570100 	 4,636990 
 469,627 	 169,674396 	 4,637003 
 470,126 	 169,767611 	 4,637028 
 470,628 	 169,891700 	 4,637059 
 471,128 	 170,007561 	 4,637106 
 471,627 	 170,109526 	 4,637116 
 472,128 	 170,223900 	 4,637154 
 472,627 	 170,332196 	 4,637173 
 473,127 	 170,442500 	 4,637197 
 473,627 	 170,542163 	 4,637233 
 474,128 	 170,644594 	 4,637260 
 474,628 	 170,761214 	 4,637295 
 475,128 	 170,883272 	 4,637319 
 475,627 	 170,978359 	 4,637351 
 476,128 	 171,094696 	 4,637395 
 476,627 	 171,205042 	 4,637402 
 477,127 	 171,306624 	 4,637435 
 477,627 	 171,414311 	 4,637463 
 478,128 	 171,532446 	 4,637484 
 478,627 	 171,622125 	 4,637483 
 479,127 	 171,728517 	 4,637511 
 479,627 	 171,847669 	 4,637548 
 480,127 	 171,962072 	 4,637581 
 480,628 	 172,091492 	 4,637602 
 481,127 	 172,178009 	 4,637597 
 481,627 	 172,286585 	 4,637653 
 482,128 	 172,420902 	 4,637666 
 482,628 	 172,524039 	 4,637685 
 483,128 	 172,656609 	 4,637698 
 483,628 	 172,721823 	 4,637746 
 484,127 	 172,783940 	 4,637767 
 484,627 	 172,959077 	 4,637778 
 485,128 	 173,064324 	 4,637786 
 485,628 	 173,154920 	 4,637853 
 486,127 	 173,246216 	 4,637858 
 486,628 	 173,371356 	 4,637909 
 487,128 	 173,478396 	 4,637908 
 487,628 	 173,585579 	 4,637934 
 488,128 	 173,704574 	 4,637975 
 488,629 	 173,795253 	 4,637993 
 489,128 	 173,894751 	 4,638010 
 489,628 	 174,021822 	 4,638036 
 490,129 	 174,130324 	 4,638062 
 490,629 	 174,231803 	 4,638081 
 491,128 	 174,381737 	 4,638117 
 491,629 	 174,437322 	 4,638134 
 492,128 	 174,580675 	 4,638127 
 492,629 	 174,666151 	 4,638155 
 493,129 	 174,784032 	 4,638203 
 493,629 	 174,855881 	 4,638215 
 494,129 	 175,037418 	 4,638221 
 494,629 	 175,087660 	 4,638246 
 495,129 	 175,208066 	 4,638283 
 495,628 	 175,351757 	 4,638302 
 496,129 	 175,411843 	 4,638356 
 496,629 	 175,536290 	 4,638363 
 497,128 	 175,591563 	 4,638372 
 497,629 	 175,730203 	 4,638418 
 498,129 	 175,782799 	 4,638424 
 498,628 	 175,945533 	 4,638459 
 499,129 	 176,040400 	 4,638473 
 499,628 	 176,171652 	 4,638504 
 500,129 	 176,280467 	 4,638528 
 500,628 	 176,362809 	 4,638540 
 501,129 	 176,529862 	 4,638575 
 501,629 	 176,605042 	 4,638585 
 502,128 	 176,670957 	 4,638612 
 502,628 	 176,790979 	 4,638649 
 503,128 	 176,932128 	 4,638638 
 503,628 	 177,012018 	 4,638677 
 504,128 	 177,109746 	 4,638690 
 504,628 	 177,230165 	 4,638724 
 505,129 	 177,354812 	 4,638725 
 505,629 	 177,454326 	 4,638753 
 506,130 	 177,584878 	 4,638777 
 506,629 	 177,686008 	 4,638821 
 507,130 	 177,746391 	 4,638849 
 507,630 	 177,815020 	 4,638844 
 508,130 	 177,974892 	 4,638879 
 508,629 	 178,065167 	 4,638894 
 509,129 	 178,211466 	 4,638912 
 509,629 	 178,354899 	 4,638929 
 510,129 	 178,384733 	 4,638964 
 510,629 	 178,497045 	 4,638964 
 511,130 	 178,606492 	 4,638996 
 511,629 	 178,695423 	 4,639013 
 512,129 	 178,822874 	 4,639035 
 512,629 	 178,925194 	 4,639084 
 513,129 	 179,044972 	 4,639084 
 513,629 	 179,169948 	 4,639098 
 514,129 	 179,229518 	 4,639116 
 514,629 	 179,363374 	 4,639141 
 515,130 	 179,475071 	 4,639177 
 515,630 	 179,552057 	 4,639196 
 516,130 	 179,650852 	 4,639205 
 516,630 	 179,753336 	 4,639239 
 517,129 	 179,887107 	 4,639246 
 517,630 	 180,031768 	 4,639273 
 518,129 	 180,074135 	 4,639296 
 518,630 	 180,181076 	 4,639303 
 519,129 	 180,255754 	 4,639343 
 519,630 	 180,361993 	 4,639374 
 520,130 	 180,506192 	 4,639400 
 520,629 	 180,626278 	 4,639411 
 521,130 	 180,686410 	 4,639438 
 521,630 	 180,798823 	 4,639438 
 522,130 	 180,939318 	 4,639473 
 522,629 	 181,075342 	 4,639499 
 523,131 	 181,190026 	 4,639503 
 523,631 	 181,227440 	 4,639543 
 524,131 	 181,348202 	 4,639547 
 524,631 	 181,486551 	 4,639583 
 525,130 	 181,578292 	 4,639601 
 525,631 	 181,655906 	 4,639607 
 526,131 	 181,789139 	 4,639617 
 526,631 	 181,879351 	 4,639649 
 527,130 	 182,011284 	 4,639678 
 527,630 	 182,086574 	 4,639692 
 528,131 	 182,195266 	 4,639724 
 528,631 	 182,301973 	 4,639737 
 529,130 	 182,470348 	 4,639760 
 529,630 	 182,475611 	 4,639776 
 530,130 	 182,622213 	 4,639783 
 530,631 	 182,716045 	 4,639820 
 531,131 	 182,786103 	 4,639810 
 531,631 	 182,912318 	 4,639863 
 532,131 	 183,015429 	 4,639870 
 532,630 	 183,126023 	 4,639883 
 533,130 	 183,201280 	 4,639910 
 533,630 	 183,312852 	 4,639919 
 534,131 	 183,416964 	 4,639961 
 534,630 	 183,533124 	 4,639960 
 535,130 	 183,663251 	 4,639983 
 535,630 	 183,726358 	 4,640005 
 536,131 	 183,866130 	 4,639997 
 536,630 	 183,920621 	 4,640048 
 537,130 	 183,968101 	 4,640075 
 537,630 	 184,156662 	 4,640069 
 538,131 	 184,266756 	 4,640095 
 538,630 	 184,370036 	 4,640131 
 539,130 	 184,463335 	 4,640136 
 539,630 	 184,546251 	 4,640159 
 540,130 	 184,673718 	 4,640165 
 540,632 	 184,740781 	 4,640196 
 541,131 	 184,860402 	 4,640228 
 541,630 	 184,968821 	 4,640228 
 542,130 	 185,078524 	 4,640248 
 542,631 	 185,159106 	 4,640250 
 543,131 	 185,308209 	 4,640271 
 543,631 	 185,364670 	 4,640280 
 544,130 	 185,455218 	 4,640317 
 544,631 	 185,550465 	 4,640328 
 545,130 	 185,674198 	 4,640325 
 545,631 	 185,762820 	 4,640341 
 546,131 	 185,869710 	 4,640367 
 546,631 	 185,971095 	 4,640375 
 547,130 	 186,081946 	 4,640388 
 547,631 	 186,157875 	 4,640404 
 548,131 	 186,264394 	 4,640426 
 548,630 	 186,354800 	 4,640437 
 549,130 	 186,444377 	 4,640445 
 549,631 	 186,538816 	 4,640450 
 550,131 	 186,674711 	 4,640495 
 550,630 	 186,729007 	 4,640506 
 551,131 	 186,877181 	 4,640524 
 551,630 	 186,975642 	 4,640543 
 552,130 	 187,067497 	 4,640551 
 552,631 	 187,166851 	 4,640564 
 553,131 	 187,287184 	 4,640581 
 553,631 	 187,343084 	 4,640614 
 554,130 	 187,472109 	 4,640626 
 554,631 	 187,570946 	 4,640652 
 555,131 	 187,686048 	 4,640656 
 555,630 	 187,771967 	 4,640673 
 556,131 	 187,893307 	 4,640693 
 556,630 	 188,002256 	 4,640700 
 557,130 	 188,093762 	 4,640711 
 557,631 	 188,195819 	 4,640714 
 558,132 	 188,281003 	 4,640767 
 558,631 	 188,388040 	 4,640775 
 559,131 	 188,500545 	 4,640804 
 559,631 	 188,583092 	 4,640805 
 560,131 	 188,697547 	 4,640838 
 560,631 	 188,792643 	 4,640837 
 561,131 	 188,895469 	 4,640871 
 561,631 	 188,974102 	 4,640881 
 562,132 	 189,097257 	 4,640903 
 562,631 	 189,191257 	 4,640924 
 563,132 	 189,280837 	 4,640947 
 563,631 	 189,382887 	 4,640955 
 564,132 	 189,485005 	 4,640968 
 564,631 	 189,580752 	 4,640980 
 565,132 	 189,708014 	 4,641001 
 565,631 	 189,777847 	 4,641029 
 566,131 	 189,884945 	 4,641028 
 566,632 	 189,991088 	 4,641049 
 567,131 	 190,080717 	 4,641056 
 567,632 	 190,172658 	 4,641087 
 568,131 	 190,309627 	 4,641096 
 568,632 	 190,403274 	 4,641099 
 569,132 	 190,485208 	 4,641125 
 569,632 	 190,601789 	 4,641142 
 570,131 	 190,673295 	 4,641170 
 570,632 	 190,785905 	 4,641191 
 571,132 	 190,899523 	 4,641184 
 571,632 	 190,983316 	 4,641196 
 572,132 	 191,122178 	 4,641231 
 572,632 	 191,211475 	 4,641240 
 573,131 	 191,304223 	 4,641260 
 573,632 	 191,371718 	 4,641260 
 574,132 	 191,511602 	 4,641281 
 574,632 	 191,577858 	 4,641315 
 575,131 	 191,685524 	 4,641317 
 575,633 	 191,775355 	 4,641334 
 576,132 	 191,881345 	 4,641346 
 576,633 	 191,974417 	 4,641375 
 577,133 	 192,083168 	 4,641384 
 577,633 	 192,168775 	 4,641403 
 578,133 	 192,281657 	 4,641434 
 578,633 	 192,367017 	 4,641441 
 579,133 	 192,464347 	 4,641432 
 579,633 	 192,586629 	 4,641457 
 580,133 	 192,687636 	 4,641495 
 580,633 	 192,790356 	 4,641513 
 581,133 	 192,876322 	 4,641515 
 581,633 	 192,957362 	 4,641545 
 582,133 	 193,047992 	 4,641571 
 582,633 	 193,145502 	 4,641566 
 583,132 	 193,290245 	 4,641583 
 583,633 	 193,371513 	 4,641592 
 584,133 	 193,410166 	 4,641584 
 584,632 	 193,561026 	 4,641603 
 585,132 	 193,647613 	 4,641625 
 585,632 	 193,734709 	 4,641654 
 586,133 	 193,827245 	 4,641661 
 586,633 	 193,930820 	 4,641664 
 587,132 	 194,018703 	 4,641684 
 587,632 	 194,080162 	 4,641699 
 588,132 	 194,210043 	 4,641715 
 588,632 	 194,333042 	 4,641733 
 589,132 	 194,410479 	 4,641732 
 589,633 	 194,487416 	 4,641740 
 590,132 	 194,596821 	 4,641762 
 590,633 	 194,700226 	 4,641778 
 591,132 	 194,787677 	 4,641795 
 591,632 	 194,873337 	 4,641802 
 592,132 	 194,979606 	 4,641813 
 592,632 	 195,066116 	 4,641834 
 593,133 	 195,181001 	 4,641834 
 593,634 	 195,282330 	 4,641842 
 594,133 	 195,390782 	 4,641884 
 594,633 	 195,452355 	 4,641894 
 595,133 	 195,545340 	 4,641891 
 595,633 	 195,661028 	 4,641922 
 596,134 	 195,766438 	 4,641949 
 596,634 	 195,868796 	 4,641959 
 597,133 	 195,945269 	 4,641964 
 597,633 	 196,068541 	 4,641970 
 598,134 	 196,153578 	 4,641987 
 598,633 	 196,215344 	 4,642015 
 599,133 	 196,315698 	 4,642016 
 599,633 	 196,404673 	 4,642034 
 600,133 	 196,520417 	 4,642046 
 600,633 	 196,598775 	 4,642058 
 601,133 	 196,709592 	 4,642102 
 601,634 	 196,826872 	 4,642111 
 602,134 	 196,911613 	 4,642094 
 602,634 	 196,992254 	 4,642100 
 603,134 	 197,111741 	 4,642126 
 603,633 	 197,129637 	 4,642132 
 604,133 	 197,287996 	 4,642165 
 604,633 	 197,375518 	 4,642152 
 605,134 	 197,451255 	 4,642160 
 605,634 	 197,521905 	 4,642165 
 606,134 	 197,633403 	 4,642195 
 606,634 	 197,794013 	 4,642204 
 607,134 	 197,853762 	 4,642225 
 607,634 	 197,952034 	 4,642223 
 608,133 	 197,997807 	 4,642267 
 608,634 	 198,149119 	 4,642235 
 609,133 	 198,223003 	 4,642229 
 609,634 	 198,320729 	 4,642289 
 610,134 	 198,412975 	 4,642284 
 610,635 	 198,487070 	 4,642304 
 611,135 	 198,602833 	 4,642315 
 611,635 	 198,705107 	 4,642336 
 612,134 	 198,795154 	 4,642331 
 612,634 	 198,900609 	 4,642345 
 613,135 	 199,003771 	 4,642354 
 613,635 	 199,091167 	 4,642401 
 614,135 	 199,161001 	 4,642435 
 614,634 	 199,272538 	 4,642399 
 615,133 	 199,328901 	 4,642410 
 615,634 	 199,474100 	 4,642415 
 616,134 	 199,500768 	 4,642440 
 616,634 	 199,637303 	 4,642444 
 617,134 	 199,718829 	 4,642461 
 617,633 	 199,832485 	 4,642483 
 618,133 	 200,004039 	 4,642491 
 618,633 	 200,022971 	 4,642503 
 619,133 	 200,034691 	 4,642484 
 619,633 	 200,192524 	 4,642521 
 620,133 	 200,325023 	 4,642540 
 620,633 	 200,415353 	 4,642550 
 621,133 	 200,492029 	 4,642562 
 621,634 	 200,567389 	 4,642580 
 622,133 	 200,673115 	 4,642595 
 622,633 	 200,757428 	 4,642598 
 623,134 	 200,859575 	 4,642604 
 623,633 	 200,961820 	 4,642630 
 624,134 	 201,167202 	 4,642630 
 624,633 	 201,147244 	 4,642652 
 625,133 	 201,238440 	 4,642647 
 625,633 	 201,296779 	 4,642657 
 626,134 	 201,440356 	 4,642654 
 626,634 	 201,513371 	 4,642705 
 627,134 	 201,532236 	 4,642712 
 627,635 	 201,724692 	 4,642721 
 628,134 	 201,783905 	 2,418123 
 628,634 	 201,851196 	 0,018056 
 629,135 	 201,845904 	 0,018058 
 629,635 	 201,847052 	 0,018059 
 630,135 	 201,837114 	 0,018050 
 630,634 	 201,783199 	 0,018056 
 631,134 	 201,765898 	 0,018074 
 631,635 	 201,711896 	 0,018075 
 632,135 	 201,675583 	 0,018073 
 632,634 	 201,662118 	 0,018075 
 633,135 	 201,627445 	 0,018073 
 633,635 	 201,587892 	 0,018048 
 634,135 	 201,557660 	 0,018068 
 634,634 	 201,527962 	 0,018055 
 635,134 	 201,519196 	 0,018072 
 635,634 	 201,464423 	 0,018068 
 636,135 	 201,463865 	 0,018071 
 636,634 	 201,399265 	 0,018075 
 637,134 	 201,367801 	 0,018070 
 637,635 	 201,359010 	 0,018079 
 638,135 	 201,310999 	 0,018083 
 638,634 	 201,292434 	 0,018064 
 639,135 	 201,269229 	 0,018074 
 639,634 	 201,224697 	 0,018062 
 640,135 	 201,183606 	 0,018068 
 640,634 	 201,187895 	 0,018074 
 641,135 	 201,148837 	 0,018073 
 641,634 	 201,113777 	 0,018072 
 642,134 	 201,098573 	 0,018069 
 642,634 	 201,047092 	 0,018079 
 643,135 	 201,004380 	 0,018062 
 643,634 	 200,993205 	 0,018078 
 644,135 	 200,976708 	 0,018087 
 644,635 	 200,944378 	 0,018085 
 645,136 	 200,910282 	 0,018095 
 645,635 	 200,898038 	 0,018096 
 646,135 	 200,837050 	 0,018093 
 646,636 	 200,821957 	 0,018081 
 647,136 	 200,807966 	 0,018080 
 647,636 	 200,785507 	 0,018093 
 648,135 	 200,747777 	 0,018096 
 648,636 	 200,714266 	 0,018092 
 649,135 	 200,696409 	 0,018087 
 649,635 	 200,659178 	 0,018100 
 650,135 	 200,641941 	 0,018086 
 650,635 	 200,624473 	 0,018089 
 651,136 	 200,579888 	 0,018098 
 651,636 	 200,564239 	 0,018089 
 652,135 	 200,520163 	 0,018075 
 652,636 	 200,505262 	 0,018084 
 653,135 	 200,463855 	 0,018084 
 653,636 	 200,438691 	 0,018095 
 654,135 	 200,404444 	 0,018083 
 654,636 	 200,372823 	 0,018098 
 655,136 	 200,362919 	 0,018089 
 655,636 	 200,339221 	 0,018094 
 656,135 	 200,299291 	 0,018093 
 656,636 	 200,263802 	 0,018084 
 657,135 	 200,230498 	 0,018084 
 657,636 	 200,208972 	 0,018091 
 658,135 	 200,179988 	 0,018081 
 658,636 	 200,153946 	 0,018077 
 659,136 	 200,143567 	 0,018078 
 659,636 	 200,098234 	 0,018072 
 660,136 	 200,071690 	 0,018073 
 660,636 	 200,048312 	 0,018069 
 661,136 	 200,013529 	 0,018076 
 661,636 	 199,996390 	 0,018059 
 662,136 	 199,971168 	 0,018062 
 662,637 	 199,939069 	 0,018070 
 663,137 	 199,912237 	 0,018070 
 663,637 	 199,896724 	 0,018083 
 664,137 	 199,839243 	 0,018093 
 664,636 	 199,798414 	 0,018095 
 665,136 	 199,815437 	 0,018088 
 665,637 	 199,786294 	 0,018087 
 666,137 	 199,755888 	 0,018075 
 666,637 	 199,717786 	 0,018085 
 667,137 	 199,667053 	 0,018090 
 667,637 	 199,661258 	 0,018095 
 668,137 	 199,616570 	 0,018104 
 668,637 	 199,637898 	 0,018113 
 669,137 	 199,595969 	 0,018111 
 669,637 	 199,547250 	 0,018094 
 670,137 	 199,514593 	 0,018100 
 670,637 	 199,442222 	 0,018069 
 671,137 	 199,458932 	 0,018083 
 671,637 	 199,438779 	 0,018093 
 672,137 	 199,395825 	 0,018084 
 672,636 	 199,397525 	 0,018081 
 673,137 	 199,351560 	 0,018058 
 673,637 	 199,322608 	 0,018055 
 674,136 	 199,305578 	 0,018061 
 674,637 	 199,275126 	 0,018064 
 675,136 	 199,255367 	 0,018055 
 675,636 	 199,228924 	 0,018068 
 676,136 	 199,182646 	 0,018081 
 676,636 	 199,168726 	 0,018059 
 677,137 	 199,127081 	 0,018076 
 677,636 	 199,121553 	 0,018057 
 678,137 	 199,065029 	 0,018058 
 678,636 	 199,020586 	 0,018056 
 679,137 	 198,992781 	 0,018075 
 679,636 	 198,980820 	 0,018065 
 680,137 	 198,963322 	 0,018076 
 680,637 	 198,925872 	 0,018074 
 681,137 	 198,940647 	 0,018060 
 681,637 	 198,873584 	 0,018069 
 682,137 	 198,882037 	 0,018064 
 682,637 	 198,826885 	 0,018072 
 683,138 	 198,812298 	 0,018066 
 683,637 	 198,781026 	 0,018071 
 684,138 	 198,726307 	 0,018077 
 684,638 	 198,716604 	 0,018066 
 685,138 	 198,646012 	 0,018100 
 685,637 	 198,646805 	 0,018087 
 686,136 	 198,713525 	 0,018098 
 686,637 	 198,629734 	 0,018074 
 687,137 	 198,579531 	 0,018086 
 687,637 	 198,566911 	 0,018100 
 688,136 	 198,578001 	 0,018086 
 688,636 	 198,498153 	 0,018060 
 689,137 	 198,461768 	 0,018099 
 689,636 	 198,461269 	 0,018062 
 690,137 	 198,430378 	 0,018071 
 690,636 	 198,383994 	 0,018068 
 691,136 	 198,367885 	 0,018059 
 691,636 	 198,336779 	 0,018062 
 692,137 	 198,304150 	 0,018075 
 692,636 	 198,261803 	 0,018084 
 693,137 	 198,257524 	 0,018082 
 693,636 	 198,225584 	 0,018084 
 694,136 	 198,190967 	 0,018096 
 694,636 	 198,178221 	 0,018097 
 695,136 	 198,127917 	 0,018080 
 695,636 	 198,062204 	 0,018079 
 696,136 	 197,983538 	 0,018072 
 696,637 	 197,930998 	 0,018073 
 697,136 	 197,869512 	 0,018074 
 697,638 	 197,802894 	 0,018091 
 698,137 	 197,742025 	 0,018083 
 698,637 	 197,689248 	 0,018062 
 699,138 	 197,632263 	 0,018075 
 699,637 	 197,565544 	 0,018066 
 700,138 	 197,506208 	 0,018075 
 700,637 	 197,451975 	 0,018065 
 701,137 	 197,397192 	 0,018070 
 701,637 	 197,323158 	 0,018067 
 702,137 	 197,267135 	 0,018074 
 702,637 	 197,215051 	 0,018063 
 703,138 	 197,147574 	 0,018067 
 703,638 	 197,082336 	 0,018075 
 704,137 	 197,033775 	 0,018090 
 704,637 	 197,011838 	 0,018044 
 705,137 	 196,910727 	 0,018061 
 705,637 	 196,838252 	 0,018061 
 706,138 	 196,799470 	 0,018037 
 706,637 	 196,652472 	 0,018046 
 707,137 	 196,677551 	 0,018074 
 707,638 	 196,559818 	 0,018081 
 708,137 	 196,516847 	 0,018064 
 708,638 	 196,540129 	 0,018065 
 709,137 	 196,473608 	 0,018059 
 709,637 	 196,368750 	 0,018061 
 710,137 	 196,320880 	 0,018046 
 710,637 	 196,248451 	 0,018066 
 711,138 	 196,215498 	 0,018061 
 711,638 	 196,129752 	 0,018042 
 712,137 	 196,074817 	 0,018046 
 712,638 	 196,072198 	 0,018050 
 713,137 	 195,985088 	 0,018056 
 713,637 	 195,883145 	 0,018069 
 714,138 	 195,922148 	 0,018078 
 714,638 	 195,810189 	 0,018093 
 715,139 	 195,759169 	 0,018097 
 715,639 	 195,740889 	 0,018061 
 716,139 	 195,574271 	 0,018062 
 716,639 	 195,512959 	 0,018046 
 717,138 	 195,449425 	 0,018075 
 717,639 	 195,434457 	 0,018076 
 718,139 	 195,366302 	 0,018040 
 718,639 	 195,323140 	 0,018087 
 719,139 	 195,249843 	 0,018061 
 719,638 	 195,191373 	 0,018058 
 720,139 	 195,138690 	 0,018070 
 720,639 	 195,083676 	 0,017991 
 721,139 	 194,999686 	 0,018055 
 721,639 	 194,978165 	 0,018021 
 722,139 	 194,856281 	 0,018054 
 722,639 	 194,820169 	 0,018066 
 723,139 	 194,772617 	 0,018033 
 723,639 	 194,720377 	 0,018027 
 724,138 	 194,659026 	 0,018065 
 724,639 	 194,587971 	 0,018036 
 725,139 	 194,545096 	 0,018037 
 725,638 	 194,466800 	 0,018028 
 726,139 	 194,431381 	 0,018041 
 726,638 	 194,347852 	 0,018038 
 727,139 	 194,287313 	 0,018050 
 727,638 	 194,221120 	 0,018026 
 728,138 	 194,129341 	 0,018002 
 728,638 	 194,154199 	 0,018025 
 729,138 	 194,058080 	 0,018035 
 729,638 	 193,995733 	 0,018045 
 730,139 	 193,937214 	 0,018041 
 730,638 	 193,893026 	 0,018053 
 731,139 	 193,821877 	 0,018043 
 731,639 	 193,754932 	 0,018042 
 732,138 	 193,620339 	 0,018049 
 732,639 	 193,599719 	 0,018051 
 733,139 	 193,597073 	 0,018051 
 733,639 	 193,464144 	 0,018037 
 734,140 	 193,437392 	 0,018049 
 734,639 	 193,392347 	 0,018054 
 735,140 	 193,294961 	 0,018044 
 735,640 	 193,269154 	 0,018058 
 736,140 	 193,220341 	 0,018050 
 736,639 	 193,160786 	 0,018074 
 737,139 	 193,066542 	 0,018022 
 737,640 	 193,013705 	 0,018046 
 738,139 	 192,954558 	 0,018039 
 738,639 	 192,868978 	 0,018053 
 739,139 	 192,855466 	 0,018015 
 739,640 	 192,745259 	 0,018050 
 740,139 	 192,680523 	 0,018002 
 740,640 	 192,601284 	 0,018027 
 741,139 	 192,600763 	 0,018035 
 741,640 	 192,550815 	 0,018005 
 742,139 	 192,491401 	 0,018036 
 742,640 	 192,387119 	 0,018044 
 743,140 	 192,362926 	 0,018038 
 743,639 	 192,338606 	 0,018055 
 744,140 	 192,204144 	 0,018020 
 744,640 	 192,157247 	 0,018042 
 745,140 	 192,124817 	 0,018023 
 745,640 	 192,034854 	 0,018022 
 746,140 	 191,977133 	 0,018027 
 746,639 	 191,908547 	 0,018033 
 747,140 	 191,852833 	 0,018033 
 747,640 	 191,807172 	 0,017997 
 748,140 	 191,748627 	 0,018037 
 748,640 	 191,721393 	 0,018014 
 749,140 	 191,627415 	 0,018047 
 749,640 	 191,554147 	 0,018043 
 750,140 	 191,499418 	 0,018041 
 750,641 	 191,379444 	 0,018043 
 751,141 	 191,383567 	 0,018001 
 751,640 	 191,303421 	 0,018019 
 752,141 	 191,231794 	 0,018007 
 752,641 	 191,189437 	 0,018001 
 753,141 	 191,139195 	 0,018002 
 753,641 	 191,087130 	 0,017995 
 754,141 	 190,972023 	 0,018008 
 754,640 	 190,941568 	 0,018015 
 755,140 	 190,870981 	 0,018021 
 755,641 	 190,805189 	 0,017979 
 756,140 	 190,762767 	 0,018004 
 756,641 	 190,678790 	 0,018030 
 757,140 	 190,632971 	 0,018002 
 757,641 	 190,527839 	 0,018014 
 758,141 	 190,511835 	 0,018030 
 758,640 	 190,397782 	 0,018031 
 759,140 	 190,359959 	 0,018046 
 759,640 	 190,311271 	 0,018017 
 760,139 	 190,203513 	 0,018006 
 760,640 	 190,193785 	 0,018038 
 761,140 	 190,207356 	 0,018036 
 761,639 	 190,091274 	 0,018023 
 762,139 	 190,002653 	 0,018028 
 762,639 	 189,980083 	 0,017966 
 763,139 	 189,933447 	 0,018062 
 763,639 	 189,840701 	 0,017981 
 764,140 	 189,783672 	 0,018025 
 764,640 	 189,723788 	 0,018016 
 765,140 	 189,611197 	 0,018048 
 765,640 	 189,587531 	 0,018014 
 766,140 	 189,539427 	 0,018031 
 766,639 	 189,457805 	 0,018014 
 767,140 	 189,428522 	 0,018011 
 767,640 	 189,333851 	 0,017994 
 768,141 	 189,335334 	 0,018011 
 768,640 	 189,194471 	 0,018032 
 769,141 	 189,150462 	 0,018013 
 769,640 	 189,084413 	 0,018023 
 770,140 	 189,040902 	 0,018023 
 770,640 	 188,958653 	 0,018007 
 771,141 	 188,905774 	 0,018019 
 771,641 	 188,844206 	 0,018017 
 772,141 	 188,788987 	 0,018013 
 772,640 	 188,711737 	 0,018007 
 773,141 	 188,620731 	 0,018018 
 773,641 	 188,605864 	 0,018011 
 774,140 	 188,542955 	 0,018002 
 774,640 	 188,475158 	 0,018004 
 775,141 	 188,413941 	 0,018010 
 775,640 	 188,339452 	 0,018011 
 776,140 	 188,289096 	 0,018005 
 776,640 	 188,182901 	 0,018023 
 777,140 	 188,175059 	 0,018018 
 777,640 	 188,103451 	 0,017981 
 778,140 	 188,053101 	 0,017980 
 778,640 	 187,980630 	 0,017988 
 779,140 	 187,896975 	 0,017995 
 779,641 	 187,844081 	 0,017990 
 780,141 	 187,849636 	 0,018000 
 780,640 	 187,729097 	 0,018009 
 781,140 	 187,675523 	 0,017986 
 781,641 	 187,612355 	 0,018007 
